Time,Outer_Coil_Voltage,Resistance
0.000000E+0,-3.544177E-4,6.585866E+0
9.530000E-1,-3.545740E-4,6.585961E+0
1.824000E+0,-3.543656E-4,6.586055E+0
2.694000E+0,-3.543353E-4,6.586244E+0
3.565000E+0,-3.544937E-4,6.586192E+0
4.436000E+0,-3.546087E-4,6.586307E+0
5.306000E+0,-3.546434E-4,6.586055E+0
6.177000E+0,-3.542246E-4,6.585961E+0
7.047000E+0,-3.446002E-4,6.586412E+0
7.919000E+0,-3.054865E-4,6.586213E+0
8.790000E+0,1.497044E-2,6.586129E+0
9.807000E+0,3.370074E-2,6.586297E+0
1.067800E+1,5.238619E-2,6.586507E+0
1.154800E+1,7.102877E-2,6.586717E+0
1.241900E+1,8.962913E-2,6.586633E+0
1.329000E+1,1.081982E-1,6.586517E+0
1.416000E+1,1.709881E-1,6.586780E+0
1.509600E+1,2.017517E-1,6.586570E+0
1.596600E+1,2.272293E-1,6.587116E+0
1.683700E+1,2.526749E-1,6.587147E+0
1.770700E+1,2.780860E-1,6.587179E+0
1.857800E+1,3.034649E-1,6.587126E+0
1.944800E+1,3.288057E-1,6.587599E+0
2.031900E+1,3.541150E-1,6.587441E+0
2.119000E+1,3.793968E-1,6.587462E+0
2.206000E+1,4.046491E-1,6.587252E+0
2.293100E+1,4.298640E-1,6.587368E+0
2.380200E+1,4.550404E-1,6.587588E+0
2.467300E+1,4.801692E-1,6.587767E+0
2.554400E+1,5.052615E-1,6.587609E+0
2.641500E+1,5.303179E-1,6.587683E+0
2.728600E+1,5.553217E-1,6.587977E+0
2.815700E+1,5.802863E-1,6.587735E+0
2.902800E+1,6.051986E-1,6.587830E+0
2.989900E+1,6.300546E-1,6.588261E+0
3.077000E+1,6.548635E-1,6.588093E+0
3.164000E+1,6.796164E-1,6.587914E+0
3.251100E+1,7.043122E-1,6.588219E+0
3.338200E+1,7.289485E-1,6.588408E+0
3.425200E+1,7.535131E-1,6.588156E+0
3.512300E+1,7.780120E-1,6.588376E+0
3.599400E+1,8.024166E-1,6.588198E+0
3.686400E+1,8.267796E-1,6.588502E+0
3.773500E+1,8.510851E-1,6.588376E+0
3.860500E+1,8.753061E-1,6.588460E+0
3.947600E+1,8.994422E-1,6.588471E+0
4.034600E+1,9.234988E-1,6.588576E+0
4.121700E+1,9.474458E-1,6.588555E+0
4.208800E+1,9.705201E-1,6.588523E+0
4.295900E+1,9.942819E-1,6.588618E+0
4.383000E+1,1.017976E+0,6.588870E+0
4.470000E+1,1.041556E+0,6.588607E+0
4.557100E+1,1.065052E+0,6.588649E+0
4.644100E+1,1.088454E+0,6.588796E+0
4.731200E+1,1.111745E+0,6.588901E+0
4.818200E+1,1.134937E+0,6.588954E+0
4.905300E+1,1.158008E+0,6.588828E+0
4.992300E+1,1.180980E+0,6.589374E+0
5.079400E+1,1.205153E+0,6.588912E+0
5.171200E+1,1.227870E+0,6.589353E+0
5.258200E+1,1.250518E+0,6.589216E+0
5.345300E+1,1.273009E+0,6.589332E+0
5.432300E+1,1.295296E+0,6.589437E+0
5.519400E+1,1.317575E+0,6.589699E+0
5.606500E+1,1.339627E+0,6.590077E+0
5.693500E+1,1.361565E+0,6.590004E+0
5.780600E+1,1.383343E+0,6.589668E+0
5.867700E+1,1.404968E+0,6.589762E+0
5.954800E+1,1.426413E+0,6.589909E+0
6.042000E+1,1.433765E+0,6.589762E+0
6.129000E+1,1.431709E+0,6.590119E+0
6.216100E+1,1.429711E+0,6.589878E+0
6.303200E+1,1.427703E+0,6.589605E+0
6.390300E+1,1.426588E+0,6.589741E+0
6.477400E+1,1.428450E+0,6.589878E+0
6.564500E+1,1.429400E+0,6.589888E+0
6.651600E+1,1.429758E+0,6.589888E+0
6.738700E+1,1.429759E+0,6.589888E+0
6.825700E+1,1.429459E+0,6.590109E+0
6.912900E+1,1.428988E+0,6.590067E+0
6.999900E+1,1.428438E+0,6.590109E+0
7.087000E+1,1.427807E+0,6.589846E+0
7.174100E+1,1.427125E+0,6.590193E+0
7.261200E+1,1.426378E+0,6.589741E+0
7.348200E+1,1.425631E+0,6.590308E+0
7.435300E+1,1.424879E+0,6.590025E+0
7.522400E+1,1.424048E+0,6.589993E+0
7.609500E+1,1.423310E+0,6.589794E+0
7.696500E+1,1.422548E+0,6.590424E+0
7.783700E+1,1.421754E+0,6.590109E+0
7.870700E+1,1.420966E+0,6.589972E+0
7.957800E+1,1.420271E+0,6.590193E+0
8.044800E+1,1.419539E+0,6.589825E+0
8.131900E+1,1.418781E+0,6.590140E+0
8.219000E+1,1.417979E+0,6.590046E+0
8.306000E+1,1.417261E+0,6.590224E+0
8.393100E+1,1.416576E+0,6.590077E+0
8.480200E+1,1.425876E+0,6.590266E+0
8.567300E+1,1.439513E+0,6.589930E+0
8.654300E+1,1.444729E+0,6.589951E+0
8.741400E+1,1.446454E+0,6.589731E+0
8.828500E+1,1.446998E+0,6.589773E+0
8.915600E+1,1.447276E+0,6.589783E+0
9.002700E+1,1.445833E+0,6.590172E+0
9.089800E+1,1.419823E+0,6.589930E+0
9.176900E+1,1.393389E+0,6.589857E+0
9.264000E+1,1.367010E+0,6.589867E+0
9.351100E+1,1.340750E+0,6.589479E+0
9.438200E+1,1.314616E+0,6.589699E+0
9.525300E+1,1.288555E+0,6.589678E+0
9.612400E+1,1.262538E+0,6.589510E+0
9.699500E+1,1.236531E+0,6.589237E+0
9.786600E+1,1.210567E+0,6.589101E+0
9.873600E+1,1.184681E+0,6.589111E+0
9.960700E+1,1.158820E+0,6.588964E+0
1.004780E+2,1.132969E+0,6.589153E+0
1.013480E+2,1.107115E+0,6.589111E+0
1.022190E+2,1.081340E+0,6.588901E+0
1.030900E+2,1.055584E+0,6.588943E+0
1.039600E+2,1.029856E+0,6.589027E+0
1.048310E+2,1.004203E+0,6.588849E+0
1.057020E+2,9.770785E-1,6.588775E+0
1.066190E+2,9.513761E-1,6.589038E+0
1.074900E+2,9.257006E-1,6.588649E+0
1.083610E+2,9.000167E-1,6.588964E+0
1.092320E+2,8.743184E-1,6.588702E+0
1.101030E+2,8.486635E-1,6.588754E+0
1.109730E+2,8.230160E-1,6.588702E+0
1.118440E+2,7.973877E-1,6.588649E+0
1.127160E+2,7.717675E-1,6.588513E+0
1.135860E+2,7.461490E-1,6.588754E+0
1.144570E+2,7.205338E-1,6.588492E+0
1.153280E+2,6.949432E-1,6.588418E+0
1.161980E+2,6.693339E-1,6.588639E+0
1.170690E+2,6.437485E-1,6.588439E+0
1.179400E+2,6.181989E-1,6.588397E+0
1.188100E+2,5.926524E-1,6.588429E+0
1.196810E+2,5.671215E-1,6.587819E+0
1.205520E+2,5.415727E-1,6.588292E+0
1.214220E+2,5.160400E-1,6.588156E+0
1.222930E+2,4.905191E-1,6.588208E+0
1.231630E+2,4.650052E-1,6.588271E+0
1.240340E+2,4.394963E-1,6.588145E+0
1.249050E+2,4.139836E-1,6.588198E+0
1.257760E+2,3.884761E-1,6.588313E+0
1.266470E+2,3.629819E-1,6.588198E+0
1.275170E+2,3.374949E-1,6.587967E+0
1.283880E+2,3.120121E-1,6.587672E+0
1.292590E+2,2.865298E-1,6.587809E+0
1.301310E+2,2.610551E-1,6.587798E+0
1.310020E+2,2.355852E-1,6.587788E+0
1.318730E+2,2.101199E-1,6.587641E+0
1.327440E+2,1.846636E-1,6.587777E+0
1.336150E+2,1.592233E-1,6.587294E+0
1.344850E+2,1.337873E-1,6.587599E+0
1.353560E+2,1.083601E-1,6.587515E+0
1.362270E+2,6.007045E-2,6.587389E+0
1.371630E+2,4.031554E-2,6.587305E+0
1.380330E+2,2.178946E-2,6.587032E+0
1.389040E+2,2.285993E-3,6.587347E+0
1.398210E+2,-2.541269E-4,6.587231E+0
1.406920E+2,-3.050655E-4,6.587221E+0
1.415630E+2,-3.131947E-4,6.587252E+0
1.424340E+2,-3.185157E-4,6.587347E+0
1.433050E+2,-3.220985E-4,6.587273E+0
1.441760E+2,-3.251106E-4,6.587147E+0
1.450470E+2,-3.272265E-4,6.587546E+0
1.459180E+2,-3.294812E-4,6.587242E+0
1.467880E+2,-3.310719E-4,6.587357E+0
1.476600E+2,-3.321439E-4,6.587357E+0
1.485310E+2,-3.337150E-4,6.587221E+0
1.494020E+2,-3.346525E-4,6.587357E+0
1.502720E+2,-3.357962E-4,6.587819E+0
1.511430E+2,-3.364580E-4,6.587105E+0
1.520140E+2,-3.373782E-4,6.587284E+0
1.528850E+2,-3.379945E-4,6.587546E+0
1.537550E+2,-3.386238E-4,6.587347E+0
1.546260E+2,-3.393074E-4,6.587336E+0
1.554970E+2,-3.396177E-4,6.587504E+0
1.563680E+2,-3.401494E-4,6.587231E+0
