Time	Outer_Coil_Voltage	Resistance
0.000000E+0	2.441125E-1	8.242060E-1
1.178000E+0	2.319165E-1	8.188710E-1
2.053000E+0	2.077710E-1	8.158360E-1
2.924000E+0	1.836157E-1	8.136940E-1
3.794000E+0	1.594632E-1	8.117090E-1
4.665000E+0	1.353043E-1	8.113310E-1
5.535000E+0	1.111314E-1	8.101860E-1
6.406000E+0	6.385349E-2	8.094620E-1
7.342000E+0	4.482725E-2	8.102280E-1
8.212000E+0	2.694036E-2	8.112050E-1
9.082000E+0	6.861278E-3	8.112050E-1
1.006000E+1	-2.333982E-4	8.114150E-1
1.093100E+1	-2.916174E-4	8.113210E-1
1.180100E+1	-3.029128E-4	8.120350E-1
1.267200E+1	-3.086418E-4	8.112680E-1
1.354200E+1	-3.125306E-4	8.114890E-1
1.441300E+1	-3.158856E-4	8.114780E-1
1.528300E+1	-3.184897E-4	8.112790E-1
1.615400E+1	-3.206750E-4	8.112470E-1
1.702500E+1	-3.221051E-4	8.114150E-1
1.789700E+1	-3.236480E-4	8.113630E-1
1.876800E+1	-3.248546E-4	8.113310E-1
1.963900E+1	-3.257378E-4	8.119720E-1
2.051000E+1	-2.892564E-4	8.114260E-1
2.138100E+1	3.171484E-3	8.105430E-1
2.225100E+1	2.240713E-2	8.099130E-1
2.316900E+1	4.058450E-2	8.094720E-1
2.404000E+1	5.870945E-2	8.090840E-1
2.491000E+1	7.679370E-2	8.089680E-1
2.578100E+1	9.484405E-2	8.092200E-1
2.665100E+1	1.128620E-1	8.088420E-1
2.752100E+1	1.743491E-1	8.120980E-1
2.845800E+1	2.032097E-1	8.143980E-1
2.932900E+1	2.275689E-1	8.179160E-1
3.019900E+1	2.518980E-1	8.224420E-1
3.107000E+1	2.762128E-1	8.297300E-1
3.194100E+1	3.005024E-1	8.369030E-1
3.281200E+1	3.247726E-1	8.468490E-1
3.368300E+1	3.490161E-1	8.652380E-1
3.455300E+1	3.732477E-1	8.882580E-1
3.542500E+1	3.974607E-1	9.288800E-1
3.629600E+1	4.216572E-1	9.882260E-1
3.716700E+1	4.458341E-1	1.053223E+0
3.803700E+1	4.699917E-1	1.123776E+0
3.890800E+1	4.941345E-1	1.189917E+0
3.977800E+1	5.182522E-1	1.241608E+0
4.064900E+1	5.423576E-1	1.278449E+0
4.151900E+1	5.664399E-1	1.304462E+0
4.239000E+1	5.905056E-1	1.319470E+0
4.326100E+1	6.145452E-1	1.329772E+0
4.413100E+1	6.385641E-1	1.338940E+0
4.500200E+1	6.625533E-1	1.344559E+0
4.587200E+1	6.865170E-1	1.349715E+0
4.674300E+1	7.104535E-1	1.355397E+0
4.761400E+1	7.343579E-1	1.360049E+0
4.848400E+1	7.582385E-1	1.364345E+0
4.935500E+1	7.820929E-1	1.369869E+0
5.022600E+1	8.059050E-1	1.375666E+0
5.109700E+1	8.296902E-1	1.386010E+0
5.196800E+1	8.534310E-1	1.406384E+0
5.283900E+1	8.771262E-1	1.447888E+0
5.371000E+1	9.007849E-1	1.532124E+0
5.458100E+1	9.243769E-1	1.701742E+0
5.545200E+1	9.479456E-1	2.004042E+0
5.632300E+1	9.714755E-1	2.385140E+0
5.719400E+1	9.949527E-1	2.807393E+0
5.806500E+1	1.018364E+0	3.189172E+0
5.893600E+1	1.041710E+0	3.462035E+0
5.980600E+1	1.064992E+0	3.647122E+0
6.067600E+1	1.088220E+0	3.786441E+0
6.154700E+1	1.111378E+0	3.907865E+0
6.241700E+1	1.134473E+0	4.017054E+0
6.328700E+1	1.157498E+0	4.120572E+0
6.415800E+1	1.180456E+0	4.214421E+0
6.502800E+1	1.204653E+0	4.306009E+0
6.594600E+1	1.227462E+0	4.391978E+0
6.681700E+1	1.250194E+0	4.471657E+0
6.768800E+1	1.272844E+0	4.548290E+0
6.855900E+1	1.295399E+0	4.618695E+0
6.943000E+1	1.317862E+0	4.687682E+0
7.030200E+1	1.340218E+0	4.749161E+0
7.117300E+1	1.362464E+0	4.807521E+0
7.204400E+1	1.384573E+0	4.846000E+0
7.291500E+1	1.387835E+0	4.845422E+0
7.378600E+1	1.386816E+0	4.845559E+0
7.465600E+1	1.385816E+0	4.843847E+0
7.552700E+1	1.384651E+0	4.844015E+0
7.639700E+1	1.383634E+0	4.840812E+0
7.726800E+1	1.382649E+0	4.839709E+0
7.813900E+1	1.381661E+0	4.836779E+0
7.900900E+1	1.380708E+0	4.837651E+0
7.988000E+1	1.379782E+0	4.837357E+0
8.075100E+1	1.378851E+0	4.835414E+0
8.162200E+1	1.377925E+0	4.832757E+0
8.249200E+1	1.377007E+0	4.832284E+0
8.336300E+1	1.376128E+0	4.828819E+0
8.423400E+1	1.375374E+0	4.829438E+0
8.510400E+1	1.374535E+0	4.828315E+0
8.597500E+1	1.373668E+0	4.824733E+0
8.684600E+1	1.372987E+0	4.823715E+0
8.771800E+1	1.372135E+0	4.823715E+0
8.858900E+1	1.371329E+0	4.804465E+0
8.945900E+1	1.352106E+0	4.734836E+0
9.033000E+1	1.326264E+0	4.661554E+0
9.120100E+1	1.300650E+0	4.581402E+0
9.207200E+1	1.275218E+0	4.499865E+0
9.294300E+1	1.249945E+0	4.412940E+0
9.381400E+1	1.224799E+0	4.321100E+0
9.468500E+1	1.199775E+0	4.222171E+0
9.555600E+1	1.174854E+0	4.120688E+0
9.642700E+1	1.150036E+0	4.010973E+0
9.729800E+1	1.125307E+0	3.891419E+0
9.816900E+1	1.100658E+0	3.762727E+0
9.904000E+1	1.076085E+0	3.602656E+0
9.991100E+1	1.051586E+0	3.384299E+0
1.007810E+2	1.027146E+0	3.065196E+0
1.016520E+2	1.002762E+0	2.648288E+0
1.025230E+2	9.770735E-1	2.207289E+0
1.034400E+2	9.527946E-1	1.861183E+0
1.043120E+2	9.285678E-1	1.641104E+0
1.051840E+2	9.043536E-1	1.507529E+0
1.060550E+2	8.801830E-1	1.435601E+0
1.069250E+2	8.560492E-1	1.399180E+0
1.077970E+2	8.319524E-1	1.381757E+0
1.086670E+2	8.078819E-1	1.372673E+0
1.095380E+2	7.838387E-1	1.367096E+0
1.104090E+2	7.598161E-1	1.361866E+0
1.112800E+2	7.358111E-1	1.356920E+0
1.121510E+2	7.118296E-1	1.352918E+0
1.130220E+2	6.878578E-1	1.347226E+0
1.138920E+2	6.639113E-1	1.340232E+0
1.147630E+2	6.399657E-1	1.334782E+0
1.156340E+2	6.160320E-1	1.324143E+0
1.165040E+2	5.921090E-1	1.310764E+0
1.173750E+2	5.681925E-1	1.292301E+0
1.182460E+2	5.442769E-1	1.262885E+0
1.191160E+2	5.203624E-1	1.221213E+0
1.199870E+2	4.964520E-1	1.165878E+0
1.208580E+2	4.725424E-1	1.098266E+0
1.217280E+2	4.486206E-1	1.024658E+0
1.225990E+2	4.247140E-1	9.617930E-1
1.234710E+2	4.007926E-1	9.123500E-1
1.243410E+2	3.768719E-1	8.761070E-1
1.252120E+2	3.529408E-1	8.581380E-1
1.260830E+2	3.290102E-1	8.441810E-1
1.269540E+2	3.050666E-1	8.335640E-1
1.278240E+2	2.811128E-1	8.273680E-1
1.286950E+2	2.571557E-1	8.228730E-1
1.295660E+2	2.331851E-1	8.198800E-1
1.304370E+2	2.092075E-1	8.173070E-1
1.313080E+2	1.852182E-1	8.153320E-1
1.321790E+2	1.612200E-1	8.138090E-1
1.330500E+2	1.372136E-1	8.125910E-1
1.339210E+2	1.132036E-1	8.114890E-1
1.347920E+2	6.565319E-2	8.108270E-1
1.357280E+2	4.670498E-2	8.107640E-1
1.365990E+2	2.890238E-2	8.108370E-1
1.374690E+2	6.868458E-3	8.111940E-1
1.385470E+2	-2.333895E-4	8.113100E-1
1.394180E+2	-2.911053E-4	8.108790E-1
1.402900E+2	-3.026155E-4	8.108690E-1
1.411610E+2	-3.081535E-4	8.111420E-1
1.420320E+2	-3.122051E-4	8.103440E-1
1.429030E+2	-3.154342E-4	8.104910E-1
1.437740E+2	-3.178734E-4	8.104490E-1
1.446440E+2	-3.198330E-4	8.099970E-1
1.455150E+2	-3.217991E-4	8.102600E-1
1.463860E+2	-3.232964E-4	8.103330E-1
